AUTOCAL calibration, spectrum BE070818_Eu152_22cm.spe,  .sou file: eu152.sou
1    650.2414      0.0058      182675         438    121.7830      0.0020       13620         160
1   1306.6251      0.0186       33039         198    244.6920      0.0020        3590          60
1   1579.8727      0.2165        1855          78    295.9390      0.0080         211           5
1   1838.2130      0.0102       89842         305    344.2760      0.0040       12750          90
1   1963.6609      0.1293        2602          74    367.7890      0.0050         405           8
1   2194.8325      0.0600        6253          94    411.1150      0.0050        1070          10
1   2370.2256      0.0499        8354         104    443.9760      0.0050        1480          20
1   2607.8428      0.3883        1050          62    488.6610      0.0390         195           2
1   3010.6702      0.3537         808          56    564.0210      0.0080         236           5
1   3130.4211      0.3576         957          58    586.2940      0.0060         220           5
1   3622.7473      0.2889         898          50    678.5780      0.0030         221           4
1   3676.1873      0.2105        1606          59    688.6780      0.0060         400           8
1   4157.7236      0.0325       21825         156    778.9030      0.0060        6190          80
1   4629.9434      0.0802        6273          93    867.3880      0.0080        1990          40
1   5145.7129      0.0361       20475         151    964.1310      0.0090        6920          90
1   5364.5532      0.2865        1140          47   1005.2790      0.0170         310           7
1   5817.8457      0.2358        1277          56   1089.7000      0.0150         820          10
1   5935.7856      0.0465       16091         138   1112.1160      0.0170        6490          90
1   6473.6968      0.2006        1482          48   1212.9500      0.0120         670           8
1   6933.9521      0.1597        1656          46   1299.1240      0.0120         780          10
1   7515.1191      0.0458       18758         150   1408.0110      0.0140       10000          30
1    283.5070      0.0572        5253         101     53.1560      0.0050         348           7
1    857.3776      0.2275        1170          69    160.6090      0.0250         105           3
1   1191.9580      0.3561         830          63    223.1160      0.0350          71           2
1   1475.8625      0.0315       10383         108    276.4040      0.0070        1130          20
1   1617.1046      0.0180       24538         159    302.8580      0.0050        2920          30
1   1900.8346      0.0108       72880         271    356.0140      0.0090       10000          30
1   2049.3196      0.0317        9975         102    383.8590      0.0090        1450          20
1    169.2247      0.0920        2676          59     31.8170      0.0010           6           0
1   3532.0193      0.0360       10895         105    661.6570      0.0030          85           0
